#  E (eV)   dos(E)     Int dos(E) EFermi =    6.220 eV
 -15.000  0.6246E-84  0.1249E-85
 -14.980  0.6246E-84  0.2498E-85
 -14.960  0.6246E-84  0.3748E-85
 -14.940  0.6246E-84  0.4997E-85
 -14.920  0.6246E-84  0.6246E-85
 -14.900  0.6246E-84  0.7495E-85
 -14.880  0.6246E-84  0.8745E-85
 -14.860  0.6246E-84  0.9994E-85
 -14.840  0.6246E-84  0.1124E-84
 -14.820  0.6246E-84  0.1249E-84
 -14.800  0.6246E-84  0.1374E-84
 -14.780  0.6246E-84  0.1499E-84
 -14.760  0.6246E-84  0.1624E-84
 -14.740  0.6246E-84  0.1749E-84
 -14.720  0.6246E-84  0.1874E-84
 -14.700  0.6246E-84  0.1999E-84
 -14.680  0.6246E-84  0.2124E-84
 -14.660  0.6246E-84  0.2249E-84
 -14.640  0.6246E-84  0.2374E-84
 -14.620  0.6246E-84  0.2498E-84
 -14.600  0.6246E-84  0.2623E-84
 -14.580  0.6246E-84  0.2748E-84
 -14.560  0.6246E-84  0.2873E-84
 -14.540  0.6246E-84  0.2998E-84
 -14.520  0.6246E-84  0.3123E-84
 -14.500  0.6246E-84  0.3248E-84
 -14.480  0.6246E-84  0.3373E-84
 -14.460  0.6246E-84  0.3498E-84
 -14.440  0.6246E-84  0.3623E-84
 -14.420  0.6246E-84  0.3748E-84
 -14.400  0.6246E-84  0.3873E-84
 -14.380  0.6246E-84  0.3998E-84
 -14.360  0.6246E-84  0.4122E-84
 -14.340  0.6246E-84  0.4247E-84
 -14.320  0.6246E-84  0.4372E-84
 -14.300  0.6246E-84  0.4497E-84
 -14.280  0.6246E-84  0.4622E-84
 -14.260  0.6246E-84  0.4747E-84
 -14.240  0.6246E-84  0.4872E-84
 -14.220  0.6246E-84  0.4997E-84
 -14.200  0.6246E-84  0.5122E-84
 -14.180  0.6246E-84  0.5247E-84
 -14.160  0.6246E-84  0.5372E-84
 -14.140  0.6246E-84  0.5497E-84
 -14.120  0.6246E-84  0.5622E-84
 -14.100  0.6246E-84  0.5746E-84
 -14.080  0.6246E-84  0.5871E-84
 -14.060  0.6246E-84  0.5996E-84
 -14.040  0.6246E-84  0.6121E-84
 -14.020  0.6246E-84  0.6246E-84
 -14.000  0.6246E-84  0.6371E-84
 -13.980  0.6246E-84  0.6496E-84
 -13.960  0.6246E-84  0.6621E-84
 -13.940  0.6246E-84  0.6746E-84
 -13.920  0.6246E-84  0.6871E-84
 -13.900  0.6246E-84  0.6996E-84
 -13.880  0.6246E-84  0.7121E-84
 -13.860  0.6246E-84  0.7246E-84
 -13.840  0.6246E-84  0.7370E-84
 -13.820  0.6246E-84  0.7495E-84
 -13.800  0.6246E-84  0.7620E-84
 -13.780  0.6246E-84  0.7745E-84
 -13.760  0.6246E-84  0.7870E-84
 -13.740  0.6246E-84  0.7995E-84
 -13.720  0.6246E-84  0.8120E-84
 -13.700  0.6246E-84  0.8245E-84
 -13.680  0.6246E-84  0.8370E-84
 -13.660  0.6246E-84  0.8495E-84
 -13.640  0.6246E-84  0.8620E-84
 -13.620  0.6246E-84  0.8745E-84
 -13.600  0.6246E-84  0.8869E-84
 -13.580  0.6246E-84  0.8994E-84
 -13.560  0.6246E-84  0.9119E-84
 -13.540  0.6246E-84  0.9244E-84
 -13.520  0.6246E-84  0.9369E-84
 -13.500  0.6246E-84  0.9494E-84
 -13.480  0.6246E-84  0.9619E-84
 -13.460  0.6246E-84  0.9744E-84
 -13.440  0.6246E-84  0.9869E-84
 -13.420  0.6246E-84  0.9994E-84
 -13.400  0.6246E-84  0.1012E-83
 -13.380  0.6246E-84  0.1024E-83
 -13.360  0.6246E-84  0.1037E-83
 -13.340  0.6246E-84  0.1049E-83
 -13.320  0.6246E-84  0.1062E-83
 -13.300  0.6246E-84  0.1074E-83
 -13.280  0.6246E-84  0.1087E-83
 -13.260  0.6246E-84  0.1099E-83
 -13.240  0.6246E-84  0.1112E-83
 -13.220  0.6246E-84  0.1124E-83
 -13.200  0.6246E-84  0.1137E-83
 -13.180  0.6246E-84  0.1149E-83
 -13.160  0.6246E-84  0.1162E-83
 -13.140  0.6246E-84  0.1174E-83
 -13.120  0.6246E-84  0.1187E-83
 -13.100  0.6246E-84  0.1199E-83
 -13.080  0.6246E-84  0.1212E-83
 -13.060  0.6246E-84  0.1224E-83
 -13.040  0.6246E-84  0.1237E-83
 -13.020  0.6246E-84  0.1249E-83
 -13.000  0.6246E-84  0.1262E-83
 -12.980  0.6246E-84  0.1274E-83
 -12.960  0.6246E-84  0.1287E-83
 -12.940  0.6246E-84  0.1299E-83
 -12.920  0.6246E-84  0.1312E-83
 -12.900  0.6246E-84  0.1324E-83
 -12.880  0.6246E-84  0.1337E-83
 -12.860  0.6246E-84  0.1349E-83
 -12.840  0.6246E-84  0.1362E-83
 -12.820  0.6246E-84  0.1374E-83
 -12.800  0.6246E-84  0.1387E-83
 -12.780  0.6246E-84  0.1399E-83
 -12.760  0.6246E-84  0.1412E-83
 -12.740  0.6246E-84  0.1424E-83
 -12.720  0.6246E-84  0.1437E-83
 -12.700  0.6246E-84  0.1449E-83
 -12.680  0.6246E-84  0.1462E-83
 -12.660  0.6246E-84  0.1474E-83
 -12.640  0.6246E-84  0.1487E-83
 -12.620  0.6246E-84  0.1499E-83
 -12.600  0.6246E-84  0.1512E-83
 -12.580  0.6246E-84  0.1524E-83
 -12.560  0.6246E-84  0.1537E-83
 -12.540  0.6246E-84  0.1549E-83
 -12.520  0.6246E-84  0.1562E-83
 -12.500  0.6246E-84  0.1574E-83
 -12.480  0.6246E-84  0.1587E-83
 -12.460  0.6246E-84  0.1599E-83
 -12.440  0.6246E-84  0.1612E-83
 -12.420  0.6246E-84  0.1624E-83
 -12.400  0.6246E-84  0.1636E-83
 -12.380  0.6246E-84  0.1649E-83
 -12.360  0.6246E-84  0.1661E-83
 -12.340  0.6246E-84  0.1674E-83
 -12.320  0.6246E-84  0.1686E-83
 -12.300  0.6246E-84  0.1699E-83
 -12.280  0.6246E-84  0.1711E-83
 -12.260  0.6246E-84  0.1724E-83
 -12.240  0.6246E-84  0.1736E-83
 -12.220  0.6246E-84  0.1749E-83
 -12.200  0.6246E-84  0.1761E-83
 -12.180  0.6246E-84  0.1774E-83
 -12.160  0.6246E-84  0.1786E-83
 -12.140  0.6246E-84  0.1799E-83
 -12.120  0.6246E-84  0.1811E-83
 -12.100  0.6246E-84  0.1824E-83
 -12.080  0.6246E-84  0.1836E-83
 -12.060  0.6246E-84  0.1849E-83
 -12.040  0.6246E-84  0.1861E-83
 -12.020  0.6246E-84  0.1874E-83
 -12.000  0.6246E-84  0.1886E-83
 -11.980  0.6246E-84  0.1899E-83
 -11.960  0.6246E-84  0.1911E-83
 -11.940  0.6246E-84  0.1924E-83
 -11.920  0.6246E-84  0.1936E-83
 -11.900  0.6246E-84  0.1949E-83
 -11.880  0.6246E-84  0.1961E-83
 -11.860  0.6246E-84  0.1974E-83
 -11.840  0.6246E-84  0.1986E-83
 -11.820  0.6246E-84  0.1999E-83
 -11.800  0.6246E-84  0.2011E-83
 -11.780  0.6246E-84  0.2024E-83
 -11.760  0.6246E-84  0.2036E-83
 -11.740  0.6246E-84  0.2049E-83
 -11.720  0.6246E-84  0.2061E-83
 -11.700  0.6246E-84  0.2074E-83
 -11.680  0.6246E-84  0.2086E-83
 -11.660  0.6246E-84  0.2099E-83
 -11.640  0.6246E-84  0.2111E-83
 -11.620  0.6246E-84  0.2124E-83
 -11.600  0.6246E-84  0.2136E-83
 -11.580  0.6246E-84  0.2149E-83
 -11.560  0.6246E-84  0.2161E-83
 -11.540  0.6246E-84  0.2174E-83
 -11.520  0.6246E-84  0.2186E-83
 -11.500  0.6246E-84  0.2199E-83
 -11.480  0.6246E-84  0.2211E-83
 -11.460  0.6246E-84  0.2224E-83
 -11.440  0.6246E-84  0.2236E-83
 -11.420  0.6246E-84  0.2249E-83
 -11.400  0.6246E-84  0.2261E-83
 -11.380  0.6246E-84  0.2274E-83
 -11.360  0.6246E-84  0.2286E-83
 -11.340  0.6246E-84  0.2299E-83
 -11.320  0.6246E-84  0.2311E-83
 -11.300  0.6246E-84  0.2324E-83
 -11.280  0.6246E-84  0.2336E-83
 -11.260  0.6246E-84  0.2349E-83
 -11.240  0.6246E-84  0.2361E-83
 -11.220  0.6246E-84  0.2374E-83
 -11.200  0.6246E-84  0.2386E-83
 -11.180  0.6246E-84  0.2399E-83
 -11.160  0.6246E-84  0.2411E-83
 -11.140  0.6246E-84  0.2423E-83
 -11.120  0.6246E-84  0.2436E-83
 -11.100  0.6246E-84  0.2448E-83
 -11.080  0.6246E-84  0.2461E-83
 -11.060  0.6246E-84  0.2473E-83
 -11.040  0.6246E-84  0.2486E-83
 -11.020  0.6246E-84  0.2498E-83
 -11.000  0.6246E-84  0.2511E-83
 -10.980  0.6246E-84  0.2523E-83
 -10.960  0.6246E-84  0.2536E-83
 -10.940  0.6246E-84  0.2548E-83
 -10.920  0.6246E-84  0.2561E-83
 -10.900  0.6246E-84  0.2573E-83
 -10.880  0.6246E-84  0.2586E-83
 -10.860  0.6246E-84  0.2598E-83
 -10.840  0.6246E-84  0.2611E-83
 -10.820  0.6246E-84  0.2623E-83
 -10.800  0.6246E-84  0.2636E-83
 -10.780  0.6246E-84  0.2648E-83
 -10.760  0.6246E-84  0.2661E-83
 -10.740  0.6246E-84  0.2673E-83
 -10.720  0.6246E-84  0.2686E-83
 -10.700  0.6246E-84  0.2698E-83
 -10.680  0.6246E-84  0.2711E-83
 -10.660  0.6246E-84  0.2723E-83
 -10.640  0.6246E-84  0.2736E-83
 -10.620  0.6246E-84  0.2748E-83
 -10.600  0.6246E-84  0.2761E-83
 -10.580  0.6246E-84  0.2773E-83
 -10.560  0.6246E-84  0.2786E-83
 -10.540  0.6246E-84  0.2798E-83
 -10.520  0.6246E-84  0.2811E-83
 -10.500  0.6246E-84  0.2823E-83
 -10.480  0.6246E-84  0.2836E-83
 -10.460  0.6246E-84  0.2848E-83
 -10.440  0.6246E-84  0.2861E-83
 -10.420  0.6246E-84  0.2873E-83
 -10.400  0.6246E-84  0.2886E-83
 -10.380  0.6246E-84  0.2898E-83
 -10.360  0.6246E-84  0.2911E-83
 -10.340  0.6246E-84  0.2923E-83
 -10.320  0.6246E-84  0.2936E-83
 -10.300  0.6246E-84  0.2948E-83
 -10.280  0.6246E-84  0.2961E-83
 -10.260  0.6246E-84  0.2973E-83
 -10.240  0.6246E-84  0.2986E-83
 -10.220  0.6246E-84  0.2998E-83
 -10.200  0.6246E-84  0.3011E-83
 -10.180  0.6246E-84  0.3023E-83
 -10.160  0.6246E-84  0.3036E-83
 -10.140  0.6246E-84  0.3048E-83
 -10.120  0.6246E-84  0.3061E-83
 -10.100  0.6246E-84  0.3073E-83
 -10.080  0.6246E-84  0.3086E-83
 -10.060  0.6246E-84  0.3098E-83
 -10.040  0.6246E-84  0.3111E-83
 -10.020  0.6246E-84  0.3123E-83
 -10.000  0.6246E-84  0.3136E-83
  -9.980  0.6246E-84  0.3148E-83
  -9.960  0.6246E-84  0.3161E-83
  -9.940  0.6246E-84  0.3173E-83
  -9.920  0.6246E-84  0.3186E-83
  -9.900  0.6246E-84  0.3198E-83
  -9.880  0.6246E-84  0.3211E-83
  -9.860  0.6246E-84  0.3223E-83
  -9.840  0.6246E-84  0.3235E-83
  -9.820  0.6246E-84  0.3248E-83
  -9.800  0.6246E-84  0.3260E-83
  -9.780  0.6246E-84  0.3273E-83
  -9.760  0.6246E-84  0.3285E-83
  -9.740  0.6246E-84  0.3298E-83
  -9.720  0.6246E-84  0.3310E-83
  -9.700  0.6246E-84  0.3323E-83
  -9.680  0.6246E-84  0.3335E-83
  -9.660  0.6246E-84  0.3348E-83
  -9.640  0.6246E-84  0.3360E-83
  -9.620  0.6246E-84  0.3373E-83
  -9.600  0.6246E-84  0.3385E-83
  -9.580  0.6246E-84  0.3398E-83
  -9.560  0.6246E-84  0.3410E-83
  -9.540  0.6246E-84  0.3423E-83
  -9.520  0.6246E-84  0.3435E-83
  -9.500  0.6246E-84  0.3448E-83
  -9.480  0.6246E-84  0.3460E-83
  -9.460  0.6246E-84  0.3473E-83
  -9.440  0.6246E-84  0.3485E-83
  -9.420  0.6246E-84  0.3498E-83
  -9.400  0.6246E-84  0.3510E-83
  -9.380  0.6246E-84  0.3523E-83
  -9.360  0.6246E-84  0.3535E-83
  -9.340  0.6246E-84  0.3548E-83
  -9.320  0.6246E-84  0.3560E-83
  -9.300  0.6246E-84  0.3573E-83
  -9.280  0.6246E-84  0.3585E-83
  -9.260  0.6246E-84  0.3598E-83
  -9.240  0.6246E-84  0.3610E-83
  -9.220  0.6246E-84  0.3623E-83
  -9.200  0.6246E-84  0.3635E-83
  -9.180  0.6246E-84  0.3648E-83
  -9.160  0.6246E-84  0.3660E-83
  -9.140  0.6246E-84  0.3673E-83
  -9.120  0.6246E-84  0.3685E-83
  -9.100  0.6246E-84  0.3698E-83
  -9.080  0.6246E-84  0.3710E-83
  -9.060  0.6246E-84  0.3723E-83
  -9.040  0.6246E-84  0.3735E-83
  -9.020  0.6246E-84  0.3748E-83
  -9.000  0.6246E-84  0.3760E-83
  -8.980  0.6246E-84  0.3773E-83
  -8.960  0.6246E-84  0.3785E-83
  -8.940  0.6246E-84  0.3798E-83
  -8.920  0.6246E-84  0.3810E-83
  -8.900  0.6246E-84  0.3823E-83
  -8.880  0.6246E-84  0.3835E-83
  -8.860  0.6246E-84  0.3848E-83
  -8.840  0.6246E-84  0.3860E-83
  -8.820  0.6246E-84  0.3873E-83
  -8.800  0.6246E-84  0.3885E-83
  -8.780  0.6246E-84  0.3898E-83
  -8.760  0.6246E-84  0.3910E-83
  -8.740  0.6246E-84  0.3923E-83
  -8.720  0.6246E-84  0.3935E-83
  -8.700  0.6246E-84  0.3948E-83
  -8.680  0.6246E-84  0.3960E-83
  -8.660  0.6246E-84  0.3973E-83
  -8.640  0.6246E-84  0.3985E-83
  -8.620  0.6246E-84  0.3998E-83
  -8.600  0.6246E-84  0.4010E-83
  -8.580  0.6246E-84  0.4023E-83
  -8.560  0.6246E-84  0.4035E-83
  -8.540  0.6246E-84  0.4047E-83
  -8.520  0.6246E-84  0.4060E-83
  -8.500  0.6246E-84  0.4072E-83
  -8.480  0.6246E-84  0.4085E-83
  -8.460  0.6246E-84  0.4097E-83
  -8.440  0.6246E-84  0.4110E-83
  -8.420  0.6246E-84  0.4122E-83
  -8.400  0.6246E-84  0.4135E-83
  -8.380  0.6246E-84  0.4147E-83
  -8.360  0.6246E-84  0.4160E-83
  -8.340  0.6246E-84  0.4172E-83
  -8.320  0.6246E-84  0.4185E-83
  -8.300  0.6246E-84  0.4197E-83
  -8.280  0.6246E-84  0.4210E-83
  -8.260  0.6246E-84  0.4222E-83
  -8.240  0.6246E-84  0.4235E-83
  -8.220  0.6246E-84  0.4247E-83
  -8.200  0.6246E-84  0.4260E-83
  -8.180  0.6246E-84  0.4272E-83
  -8.160  0.6246E-84  0.4285E-83
  -8.140  0.6246E-84  0.4297E-83
  -8.120  0.6246E-84  0.4310E-83
  -8.100  0.6246E-84  0.4322E-83
  -8.080  0.6246E-84  0.4335E-83
  -8.060  0.6246E-84  0.4347E-83
  -8.040  0.6246E-84  0.4360E-83
  -8.020  0.6246E-84  0.4372E-83
  -8.000  0.6246E-84  0.4385E-83
  -7.980  0.6246E-84  0.4397E-83
  -7.960  0.6246E-84  0.4410E-83
  -7.940  0.6246E-84  0.4422E-83
  -7.920  0.6246E-84  0.4435E-83
  -7.900  0.6246E-84  0.4447E-83
  -7.880  0.6246E-84  0.4460E-83
  -7.860  0.6246E-84  0.4472E-83
  -7.840  0.6246E-84  0.4485E-83
  -7.820  0.6246E-84  0.4497E-83
  -7.800  0.6246E-84  0.4510E-83
  -7.780  0.6246E-84  0.4522E-83
  -7.760  0.6246E-84  0.4535E-83
  -7.740  0.6246E-84  0.4547E-83
  -7.720  0.6246E-84  0.4560E-83
  -7.700  0.6246E-84  0.4572E-83
  -7.680  0.6246E-84  0.4585E-83
  -7.660  0.6246E-84  0.4597E-83
  -7.640  0.6246E-84  0.4610E-83
  -7.620  0.6246E-84  0.4622E-83
  -7.600  0.6246E-84  0.4635E-83
  -7.580  0.6246E-84  0.4647E-83
  -7.560  0.6246E-84  0.4660E-83
  -7.540  0.6246E-84  0.4672E-83
  -7.520  0.6246E-84  0.4685E-83
  -7.500  0.6246E-84  0.4697E-83
  -7.480  0.6246E-84  0.4710E-83
  -7.460  0.6246E-84  0.4722E-83
  -7.440  0.6246E-84  0.4735E-83
  -7.420  0.6246E-84  0.4747E-83
  -7.400  0.6246E-84  0.4760E-83
  -7.380  0.6246E-84  0.4772E-83
  -7.360  0.6246E-84  0.4785E-83
  -7.340  0.6246E-84  0.4797E-83
  -7.320  0.6246E-84  0.4810E-83
  -7.300  0.6246E-84  0.4822E-83
  -7.280  0.6246E-84  0.4835E-83
  -7.260  0.6246E-84  0.4847E-83
  -7.240  0.6246E-84  0.4859E-83
  -7.220  0.6246E-84  0.4872E-83
  -7.200  0.6246E-84  0.4884E-83
  -7.180  0.6246E-84  0.4897E-83
  -7.160  0.6246E-84  0.4909E-83
  -7.140  0.6246E-84  0.4922E-83
  -7.120  0.6246E-84  0.4934E-83
  -7.100  0.6246E-84  0.4947E-83
  -7.080  0.6246E-84  0.4959E-83
  -7.060  0.6246E-84  0.4972E-83
  -7.040  0.6246E-84  0.4984E-83
  -7.020  0.6246E-84  0.4997E-83
  -7.000  0.6246E-84  0.5009E-83
  -6.980  0.6246E-84  0.5022E-83
  -6.960  0.6246E-84  0.5034E-83
  -6.940  0.6246E-84  0.5047E-83
  -6.920  0.6246E-84  0.5059E-83
  -6.900  0.6246E-84  0.5072E-83
  -6.880  0.6246E-84  0.5084E-83
  -6.860  0.6246E-84  0.5097E-83
  -6.840  0.6246E-84  0.5109E-83
  -6.820  0.6246E-84  0.5122E-83
  -6.800  0.6246E-84  0.5134E-83
  -6.780  0.6246E-84  0.5147E-83
  -6.760  0.6246E-84  0.5159E-83
  -6.740  0.6246E-84  0.5172E-83
  -6.720  0.6246E-84  0.5184E-83
  -6.700  0.6246E-84  0.5197E-83
  -6.680  0.6246E-84  0.5209E-83
  -6.660  0.6246E-84  0.5222E-83
  -6.640  0.6246E-84  0.5234E-83
  -6.620  0.6246E-84  0.5247E-83
  -6.600  0.6246E-84  0.5259E-83
  -6.580  0.6246E-84  0.5272E-83
  -6.560  0.6246E-84  0.5284E-83
  -6.540  0.6246E-84  0.5297E-83
  -6.520  0.6246E-84  0.5309E-83
  -6.500  0.6246E-84  0.5322E-83
  -6.480  0.6246E-84  0.5334E-83
  -6.460  0.6246E-84  0.5347E-83
  -6.440  0.6246E-84  0.5359E-83
  -6.420  0.6246E-84  0.5372E-83
  -6.400  0.6246E-84  0.5384E-83
  -6.380  0.6246E-84  0.5397E-83
  -6.360  0.6246E-84  0.5409E-83
  -6.340  0.6246E-84  0.5422E-83
  -6.320  0.6246E-84  0.5434E-83
  -6.300  0.6246E-84  0.5447E-83
  -6.280  0.6246E-84  0.5459E-83
  -6.260  0.6246E-84  0.5472E-83
  -6.240  0.6246E-84  0.5484E-83
  -6.220  0.6246E-84  0.5497E-83
  -6.200  0.6246E-84  0.5509E-83
  -6.180  0.6246E-84  0.5522E-83
  -6.160  0.6246E-84  0.5534E-83
  -6.140  0.6246E-84  0.5547E-83
  -6.120  0.6246E-84  0.5559E-83
  -6.100  0.6246E-84  0.5572E-83
  -6.080  0.6246E-84  0.5584E-83
  -6.060  0.6246E-84  0.5597E-83
  -6.040  0.6246E-84  0.5609E-83
  -6.020  0.9605E-80  0.1977E-81
  -6.000  0.2121E-68  0.4243E-70
  -5.980  0.6363E-58  0.1273E-59
  -5.960  0.2594E-48  0.5188E-50
  -5.940  0.1439E-39  0.2877E-41
  -5.920  0.1087E-31  0.2174E-33
  -5.900  0.1120E-24  0.2241E-26
  -5.880  0.1578E-18  0.3157E-20
  -5.860  0.3047E-13  0.6094E-15
  -5.840  0.8086E-09  0.1617E-10
  -5.820  0.2968E-05  0.5937E-07
  -5.800  0.1522E-02  0.3051E-04
  -5.780  0.1119E+00  0.2269E-02
  -5.760  0.1256E+01  0.2739E-01
  -5.740  0.2633E+01  0.8005E-01
  -5.720  0.1964E+01  0.1193E+00
  -5.700  0.1387E+01  0.1471E+00
  -5.680  0.1155E+01  0.1702E+00
  -5.660  0.9846E+00  0.1898E+00
  -5.640  0.9107E+00  0.2081E+00
  -5.620  0.8266E+00  0.2246E+00
  -5.600  0.7666E+00  0.2399E+00
  -5.580  0.7260E+00  0.2544E+00
  -5.560  0.6733E+00  0.2679E+00
  -5.540  0.6775E+00  0.2815E+00
  -5.520  0.5636E+00  0.2927E+00
  -5.500  0.6692E+00  0.3061E+00
  -5.480  0.5204E+00  0.3165E+00
  -5.460  0.5654E+00  0.3278E+00
  -5.440  0.5427E+00  0.3387E+00
  -5.420  0.5330E+00  0.3493E+00
  -5.400  0.4818E+00  0.3590E+00
  -5.380  0.4468E+00  0.3679E+00
  -5.360  0.6121E+00  0.3802E+00
  -5.340  0.3894E+00  0.3880E+00
  -5.320  0.3216E+00  0.3944E+00
  -5.300  0.6689E+00  0.4078E+00
  -5.280  0.4523E+00  0.4168E+00
  -5.260  0.1503E+00  0.4198E+00
  -5.240  0.5547E+00  0.4309E+00
  -5.220  0.6340E+00  0.4436E+00
  -5.200  0.2122E+00  0.4478E+00
  -5.180  0.2365E+00  0.4526E+00
  -5.160  0.5854E+00  0.4643E+00
  -5.140  0.5036E+00  0.4743E+00
  -5.120  0.2310E+00  0.4790E+00
  -5.100  0.3046E+00  0.4851E+00
  -5.080  0.3709E+00  0.4925E+00
  -5.060  0.5160E+00  0.5028E+00
  -5.040  0.3809E+00  0.5104E+00
  -5.020  0.2878E+00  0.5162E+00
  -5.000  0.1362E+00  0.5189E+00
  -4.980  0.4432E+00  0.5278E+00
  -4.960  0.6288E+00  0.5403E+00
  -4.940  0.3084E+00  0.5465E+00
  -4.920  0.4211E-01  0.5473E+00
  -4.900  0.1453E+00  0.5502E+00
  -4.880  0.7150E+00  0.5645E+00
  -4.860  0.5603E+00  0.5758E+00
  -4.840  0.6705E-01  0.5771E+00
  -4.820  0.2518E-01  0.5776E+00
  -4.800  0.2926E+00  0.5835E+00
  -4.780  0.7365E+00  0.5982E+00
  -4.760  0.4001E+00  0.6062E+00
  -4.740  0.4756E-01  0.6071E+00
  -4.720  0.1373E+00  0.6099E+00
  -4.700  0.3144E+00  0.6162E+00
  -4.680  0.4527E+00  0.6252E+00
  -4.660  0.4931E+00  0.6351E+00
  -4.640  0.1487E+00  0.6381E+00
  -4.620  0.2688E+00  0.6434E+00
  -4.600  0.1593E+00  0.6466E+00
  -4.580  0.1549E+00  0.6497E+00
  -4.560  0.5597E+00  0.6609E+00
  -4.540  0.4492E+00  0.6699E+00
  -4.520  0.2795E+00  0.6755E+00
  -4.500  0.5493E-01  0.6766E+00
  -4.480  0.1577E-01  0.6769E+00
  -4.460  0.2767E+00  0.6824E+00
  -4.440  0.8100E+00  0.6986E+00
  -4.420  0.3658E+00  0.7060E+00
  -4.400  0.2560E-01  0.7065E+00
  -4.380  0.5530E-02  0.7066E+00
  -4.360  0.1163E+00  0.7089E+00
  -4.340  0.5030E+00  0.7190E+00
  -4.320  0.6549E+00  0.7321E+00
  -4.300  0.2030E+00  0.7361E+00
  -4.280  0.2382E-01  0.7366E+00
  -4.260  0.1625E+00  0.7398E+00
  -4.240  0.2674E+00  0.7452E+00
  -4.220  0.1927E+00  0.7490E+00
  -4.200  0.5279E+00  0.7596E+00
  -4.180  0.3314E+00  0.7662E+00
  -4.160  0.2419E+00  0.7711E+00
  -4.140  0.2213E+00  0.7755E+00
  -4.120  0.3118E-01  0.7761E+00
  -4.100  0.4055E-01  0.7769E+00
  -4.080  0.4136E+00  0.7852E+00
  -4.060  0.7538E+00  0.8003E+00
  -4.040  0.2670E+00  0.8056E+00
  -4.020  0.1745E-01  0.8060E+00
  -4.000  0.5453E-02  0.8061E+00
  -3.980  0.1072E+00  0.8082E+00
  -3.960  0.3797E+00  0.8158E+00
  -3.940  0.6008E+00  0.8278E+00
  -3.920  0.3628E+00  0.8351E+00
  -3.900  0.5759E-01  0.8362E+00
  -3.880  0.1944E+00  0.8401E+00
  -3.860  0.2408E+00  0.8449E+00
  -3.840  0.4533E-01  0.8458E+00
  -3.820  0.1438E+00  0.8487E+00
  -3.800  0.6350E+00  0.8614E+00
  -3.780  0.5680E+00  0.8728E+00
  -3.760  0.1353E+00  0.8755E+00
  -3.740  0.8338E-02  0.8757E+00
  -3.720  0.5920E-01  0.8768E+00
  -3.700  0.2685E+00  0.8822E+00
  -3.680  0.2903E+00  0.8880E+00
  -3.660  0.5472E+00  0.8990E+00
  -3.640  0.3884E+00  0.9067E+00
  -3.620  0.3026E+00  0.9128E+00
  -3.600  0.1252E+00  0.9153E+00
  -3.580  0.3785E-01  0.9160E+00
  -3.560  0.2240E+00  0.9205E+00
  -3.540  0.3158E+00  0.9268E+00
  -3.520  0.5248E+00  0.9373E+00
  -3.500  0.6408E+00  0.9501E+00
  -3.480  0.2723E+00  0.9556E+00
  -3.460  0.2645E+00  0.9609E+00
  -3.440  0.4266E+00  0.9694E+00
  -3.420  0.5606E+00  0.9806E+00
  -3.400  0.2859E+00  0.9863E+00
  -3.380  0.3337E+00  0.9930E+00
  -3.360  0.3891E+00  0.1001E+01
  -3.340  0.1907E+00  0.1005E+01
  -3.320  0.1784E-01  0.1005E+01
  -3.300  0.2432E-03  0.1005E+01
  -3.280  0.1838E-02  0.1005E+01
  -3.260  0.5995E-01  0.1006E+01
  -3.240  0.2670E+00  0.1012E+01
  -3.220  0.2276E+00  0.1016E+01
  -3.200  0.2844E+00  0.1022E+01
  -3.180  0.1438E+00  0.1025E+01
  -3.160  0.1030E-01  0.1025E+01
  -3.140  0.1456E-02  0.1025E+01
  -3.120  0.5056E-01  0.1026E+01
  -3.100  0.2551E+00  0.1031E+01
  -3.080  0.1760E+00  0.1035E+01
  -3.060  0.7619E-01  0.1036E+01
  -3.040  0.2650E+00  0.1041E+01
  -3.020  0.1579E+00  0.1045E+01
  -3.000  0.1408E-01  0.1045E+01
  -2.980  0.5026E-01  0.1046E+01
  -2.960  0.2546E+00  0.1051E+01
  -2.940  0.1750E+00  0.1054E+01
  -2.920  0.1679E-01  0.1055E+01
  -2.900  0.2864E-01  0.1055E+01
  -2.880  0.2157E+00  0.1060E+01
  -2.860  0.2237E+00  0.1064E+01
  -2.840  0.9711E-01  0.1066E+01
  -2.820  0.2701E+00  0.1071E+01
  -2.800  0.1483E+00  0.1074E+01
  -2.780  0.1104E-01  0.1075E+01
  -2.760  0.1477E-03  0.1075E+01
  -2.740  0.5370E-02  0.1075E+01
  -2.720  0.1121E+00  0.1077E+01
  -2.700  0.4020E+00  0.1085E+01
  -2.680  0.3803E+00  0.1093E+01
  -2.660  0.9160E-01  0.1094E+01
  -2.640  0.3677E-02  0.1095E+01
  -2.620  0.2353E-04  0.1095E+01
  -2.600  0.9015E-03  0.1095E+01
  -2.580  0.4019E-01  0.1095E+01
  -2.560  0.2571E+00  0.1100E+01
  -2.540  0.3736E+00  0.1108E+01
  -2.520  0.2735E+00  0.1113E+01
  -2.500  0.4847E-01  0.1114E+01
  -2.480  0.1607E-02  0.1114E+01
  -2.460  0.2315E-01  0.1115E+01
  -2.440  0.2006E+00  0.1119E+01
  -2.420  0.2353E+00  0.1124E+01
  -2.400  0.3777E-01  0.1124E+01
  -2.380  0.2636E-01  0.1125E+01
  -2.360  0.2087E+00  0.1129E+01
  -2.340  0.2678E+00  0.1134E+01
  -2.320  0.2723E+00  0.1140E+01
  -2.300  0.1977E+00  0.1144E+01
  -2.280  0.2205E-01  0.1144E+01
  -2.260  0.4356E-03  0.1144E+01
  -2.240  0.1043E-01  0.1144E+01
  -2.220  0.1448E+00  0.1147E+01
  -2.200  0.2920E+00  0.1153E+01
  -2.180  0.2614E+00  0.1158E+01
  -2.160  0.2443E+00  0.1163E+01
  -2.140  0.5374E-01  0.1164E+01
  -2.120  0.1582E+00  0.1168E+01
  -2.100  0.2651E+00  0.1173E+01
  -2.080  0.6053E-01  0.1174E+01
  -2.060  0.9377E-02  0.1174E+01
  -2.040  0.2847E+00  0.1180E+01
  -2.020  0.1729E+01  0.1215E+01
  -2.000  0.2388E+01  0.1262E+01
  -1.980  0.1785E+01  0.1298E+01
  -1.960  0.1216E+01  0.1322E+01
  -1.940  0.9656E+00  0.1342E+01
  -1.920  0.8518E+00  0.1359E+01
  -1.900  0.7729E+00  0.1374E+01
  -1.880  0.7127E+00  0.1388E+01
  -1.860  0.6649E+00  0.1402E+01
  -1.840  0.6272E+00  0.1414E+01
  -1.820  0.6457E+00  0.1427E+01
  -1.800  0.8224E+00  0.1444E+01
  -1.780  0.7099E+00  0.1458E+01
  -1.760  0.5337E+00  0.1468E+01
  -1.740  0.4996E+00  0.1478E+01
  -1.720  0.4823E+00  0.1488E+01
  -1.700  0.4668E+00  0.1497E+01
  -1.680  0.4525E+00  0.1506E+01
  -1.660  0.4402E+00  0.1515E+01
  -1.640  0.5008E+00  0.1525E+01
  -1.620  0.1940E+01  0.1564E+01
  -1.600  0.5850E+01  0.1681E+01
  -1.580  0.5705E+01  0.1795E+01
  -1.560  0.4200E+01  0.1879E+01
  -1.540  0.3666E+01  0.1953E+01
  -1.520  0.3509E+01  0.2023E+01
  -1.500  0.3576E+01  0.2094E+01
  -1.480  0.3984E+01  0.2174E+01
  -1.460  0.5210E+01  0.2278E+01
  -1.440  0.5089E+01  0.2380E+01
  -1.420  0.1792E+01  0.2416E+01
  -1.400  0.6716E+00  0.2429E+01
  -1.380  0.4276E+00  0.2438E+01
  -1.360  0.3949E+00  0.2446E+01
  -1.340  0.4075E+00  0.2454E+01
  -1.320  0.4250E+00  0.2462E+01
  -1.300  0.4450E+00  0.2471E+01
  -1.280  0.4673E+00  0.2481E+01
  -1.260  0.4930E+00  0.2490E+01
  -1.240  0.5460E+00  0.2501E+01
  -1.220  0.7597E+00  0.2517E+01
  -1.200  0.8301E+00  0.2533E+01
  -1.180  0.6828E+00  0.2547E+01
  -1.160  0.7086E+00  0.2561E+01
  -1.140  0.7855E+00  0.2577E+01
  -1.120  0.8875E+00  0.2594E+01
  -1.100  0.1029E+01  0.2615E+01
  -1.080  0.1241E+01  0.2640E+01
  -1.060  0.1615E+01  0.2672E+01
  -1.040  0.2525E+01  0.2723E+01
  -1.020  0.3663E+01  0.2796E+01
  -1.000  0.1823E+01  0.2832E+01
  -0.980  0.1732E+00  0.2836E+01
  -0.960  0.8264E-02  0.2836E+01
  -0.940  0.1078E+00  0.2838E+01
  -0.920  0.2806E+00  0.2844E+01
  -0.900  0.9881E-01  0.2846E+01
  -0.880  0.4780E-02  0.2846E+01
  -0.860  0.8288E-02  0.2846E+01
  -0.840  0.1388E+00  0.2849E+01
  -0.820  0.4155E+00  0.2857E+01
  -0.800  0.3565E+00  0.2864E+01
  -0.780  0.1603E+00  0.2867E+01
  -0.760  0.4271E+00  0.2876E+01
  -0.740  0.5058E+00  0.2886E+01
  -0.720  0.5240E+00  0.2896E+01
  -0.700  0.3869E+00  0.2904E+01
  -0.680  0.7172E-01  0.2906E+01
  -0.660  0.1502E+00  0.2909E+01
  -0.640  0.2899E+00  0.2914E+01
  -0.620  0.3182E+00  0.2921E+01
  -0.600  0.5298E+00  0.2931E+01
  -0.580  0.2988E+00  0.2937E+01
  -0.560  0.2918E+00  0.2943E+01
  -0.540  0.9773E-01  0.2945E+01
  -0.520  0.3143E-01  0.2946E+01
  -0.500  0.2149E+00  0.2950E+01
  -0.480  0.3088E+00  0.2956E+01
  -0.460  0.3103E+00  0.2963E+01
  -0.440  0.1262E+00  0.2965E+01
  -0.420  0.2689E-01  0.2966E+01
  -0.400  0.2008E+00  0.2970E+01
  -0.380  0.4162E+00  0.2978E+01
  -0.360  0.3933E+00  0.2986E+01
  -0.340  0.3356E+00  0.2992E+01
  -0.320  0.1204E+00  0.2995E+01
  -0.300  0.6856E-02  0.2995E+01
  -0.280  0.1925E-02  0.2995E+01
  -0.260  0.6068E-01  0.2996E+01
  -0.240  0.2773E+00  0.3002E+01
  -0.220  0.3140E+00  0.3008E+01
  -0.200  0.3429E+00  0.3015E+01
  -0.180  0.3300E+00  0.3022E+01
  -0.160  0.1540E+00  0.3025E+01
  -0.140  0.1558E-01  0.3025E+01
  -0.120  0.8975E-01  0.3027E+01
  -0.100  0.2828E+00  0.3032E+01
  -0.080  0.2013E+00  0.3036E+01
  -0.060  0.2846E+00  0.3042E+01
  -0.040  0.1252E+00  0.3045E+01
  -0.020  0.7704E-02  0.3045E+01
   0.000  0.9739E-02  0.3045E+01
   0.020  0.1891E+00  0.3049E+01
   0.040  0.5460E+00  0.3060E+01
   0.060  0.2407E+00  0.3064E+01
   0.080  0.1225E+00  0.3067E+01
   0.100  0.2807E+00  0.3073E+01
   0.120  0.9913E-01  0.3075E+01
   0.140  0.4962E-02  0.3075E+01
   0.160  0.1710E-01  0.3075E+01
   0.180  0.1784E+00  0.3079E+01
   0.200  0.2525E+00  0.3084E+01
   0.220  0.6615E-01  0.3085E+01
   0.240  0.2248E+00  0.3089E+01
   0.260  0.5037E+00  0.3099E+01
   0.280  0.2304E+00  0.3104E+01
   0.300  0.1976E-01  0.3104E+01
   0.320  0.3514E-01  0.3105E+01
   0.340  0.2305E+00  0.3110E+01
   0.360  0.2060E+00  0.3114E+01
   0.380  0.2494E-01  0.3114E+01
   0.400  0.3538E-02  0.3114E+01
   0.420  0.8040E-01  0.3116E+01
   0.440  0.3022E+00  0.3122E+01
   0.460  0.3378E+00  0.3129E+01
   0.480  0.2647E+00  0.3134E+01
   0.500  0.2477E+00  0.3139E+01
   0.520  0.2243E+00  0.3144E+01
   0.540  0.3171E-01  0.3144E+01
   0.560  0.6145E-03  0.3144E+01
   0.580  0.1558E-02  0.3144E+01
   0.600  0.5465E-01  0.3145E+01
   0.620  0.2597E+00  0.3151E+01
   0.640  0.1749E+00  0.3154E+01
   0.660  0.1674E+00  0.3157E+01
   0.680  0.4981E+00  0.3167E+01
   0.700  0.3029E+00  0.3173E+01
   0.720  0.3271E-01  0.3174E+01
   0.740  0.5495E-03  0.3174E+01
   0.760  0.1280E-03  0.3174E+01
   0.780  0.1200E-01  0.3174E+01
   0.800  0.1541E+00  0.3177E+01
   0.820  0.2888E+00  0.3183E+01
   0.840  0.2592E+00  0.3188E+01
   0.860  0.2412E+00  0.3193E+01
   0.880  0.6774E-01  0.3195E+01
   0.900  0.2167E+00  0.3199E+01
   0.920  0.2213E+00  0.3203E+01
   0.940  0.3071E-01  0.3204E+01
   0.960  0.9443E-03  0.3204E+01
   0.980  0.2370E-01  0.3204E+01
   1.000  0.2239E+00  0.3209E+01
   1.020  0.4339E+00  0.3218E+01
   1.040  0.2734E+00  0.3223E+01
   1.060  0.3875E-01  0.3224E+01
   1.080  0.1171E-02  0.3224E+01
   1.100  0.2246E-01  0.3224E+01
   1.120  0.1983E+00  0.3228E+01
   1.140  0.2371E+00  0.3233E+01
   1.160  0.3868E-01  0.3234E+01
   1.180  0.2749E-01  0.3234E+01
   1.200  0.3145E+00  0.3241E+01
   1.220  0.5252E+00  0.3251E+01
   1.240  0.1242E+00  0.3254E+01
   1.260  0.4150E-02  0.3254E+01
   1.280  0.1974E-04  0.3254E+01
   1.300  0.1746E-03  0.3254E+01
   1.320  0.1471E-01  0.3254E+01
   1.340  0.1678E+00  0.3257E+01
   1.360  0.2598E+00  0.3263E+01
   1.380  0.9432E-01  0.3264E+01
   1.400  0.3379E+00  0.3271E+01
   1.420  0.4870E+00  0.3281E+01
   1.440  0.1254E+00  0.3283E+01
   1.460  0.5272E-02  0.3284E+01
   1.480  0.3276E-04  0.3284E+01
   1.500  0.1048E-06  0.3284E+01
   1.520  0.6689E-04  0.3284E+01
   1.540  0.7943E-02  0.3284E+01
   1.560  0.1289E+00  0.3286E+01
   1.580  0.3280E+00  0.3293E+01
   1.600  0.3620E+00  0.3300E+01
   1.620  0.3856E+00  0.3308E+01
   1.640  0.2450E+00  0.3313E+01
   1.660  0.3427E-01  0.3313E+01
   1.680  0.6871E-03  0.3313E+01
   1.700  0.1874E-05  0.3313E+01
   1.720  0.2892E-06  0.3313E+01
   1.740  0.2262E-03  0.3313E+01
   1.760  0.2544E-01  0.3314E+01
   1.780  0.4419E+00  0.3323E+01
   1.800  0.1403E+01  0.3351E+01
   1.820  0.1118E+01  0.3373E+01
   1.840  0.8399E+00  0.3390E+01
   1.860  0.6075E+00  0.3402E+01
   1.880  0.4287E+00  0.3411E+01
   1.900  0.1441E+01  0.3440E+01
   1.920  0.2672E+01  0.3493E+01
   1.940  0.2191E+01  0.3537E+01
   1.960  0.1579E+01  0.3568E+01
   1.980  0.1176E+01  0.3592E+01
   2.000  0.1273E+01  0.3617E+01
   2.020  0.1712E+01  0.3652E+01
   2.040  0.1249E+01  0.3677E+01
   2.060  0.1057E+01  0.3698E+01
   2.080  0.9498E+00  0.3717E+01
   2.100  0.9624E+00  0.3736E+01
   2.120  0.8194E+00  0.3752E+01
   2.140  0.6403E+00  0.3765E+01
   2.160  0.6064E+00  0.3777E+01
   2.180  0.6755E+00  0.3791E+01
   2.200  0.8665E+00  0.3808E+01
   2.220  0.8860E+00  0.3826E+01
   2.240  0.9724E+00  0.3845E+01
   2.260  0.8189E+00  0.3862E+01
   2.280  0.8207E+00  0.3878E+01
   2.300  0.9482E+00  0.3897E+01
   2.320  0.6941E+00  0.3911E+01
   2.340  0.9108E+00  0.3929E+01
   2.360  0.2450E+01  0.3978E+01
   2.380  0.2703E+01  0.4032E+01
   2.400  0.2047E+01  0.4073E+01
   2.420  0.1900E+01  0.4111E+01
   2.440  0.1747E+01  0.4146E+01
   2.460  0.1660E+01  0.4179E+01
   2.480  0.1497E+01  0.4209E+01
   2.500  0.1357E+01  0.4236E+01
   2.520  0.1394E+01  0.4264E+01
   2.540  0.1312E+01  0.4290E+01
   2.560  0.1160E+01  0.4314E+01
   2.580  0.9258E+00  0.4332E+01
   2.600  0.9129E+00  0.4350E+01
   2.620  0.8942E+00  0.4368E+01
   2.640  0.8776E+00  0.4386E+01
   2.660  0.1168E+01  0.4409E+01
   2.680  0.1463E+01  0.4439E+01
   2.700  0.1159E+01  0.4462E+01
   2.720  0.1047E+01  0.4483E+01
   2.740  0.9777E+00  0.4502E+01
   2.760  0.1007E+01  0.4522E+01
   2.780  0.6794E+00  0.4536E+01
   2.800  0.1041E+01  0.4557E+01
   2.820  0.8824E+00  0.4574E+01
   2.840  0.9024E+00  0.4592E+01
   2.860  0.6349E+00  0.4605E+01
   2.880  0.8882E+00  0.4623E+01
   2.900  0.1001E+01  0.4643E+01
   2.920  0.1143E+01  0.4666E+01
   2.940  0.1037E+01  0.4687E+01
   2.960  0.1142E+01  0.4709E+01
   2.980  0.1124E+01  0.4732E+01
   3.000  0.7359E+00  0.4747E+01
   3.020  0.7540E+00  0.4762E+01
   3.040  0.7286E+00  0.4776E+01
   3.060  0.7061E+00  0.4790E+01
   3.080  0.8148E+00  0.4807E+01
   3.100  0.9377E+00  0.4825E+01
   3.120  0.1178E+01  0.4849E+01
   3.140  0.1311E+01  0.4875E+01
   3.160  0.1017E+01  0.4896E+01
   3.180  0.9538E+00  0.4915E+01
   3.200  0.9980E+00  0.4935E+01
   3.220  0.1120E+01  0.4957E+01
   3.240  0.9323E+00  0.4976E+01
   3.260  0.1221E+01  0.5000E+01
   3.280  0.1232E+01  0.5025E+01
   3.300  0.1111E+01  0.5047E+01
   3.320  0.1448E+01  0.5076E+01
   3.340  0.2093E+01  0.5118E+01
   3.360  0.3648E+01  0.5191E+01
   3.380  0.2781E+01  0.5246E+01
   3.400  0.1486E+01  0.5276E+01
   3.420  0.1418E+01  0.5304E+01
   3.440  0.1389E+01  0.5332E+01
   3.460  0.1063E+01  0.5353E+01
   3.480  0.8150E+00  0.5370E+01
   3.500  0.7708E+00  0.5385E+01
   3.520  0.7795E+00  0.5401E+01
   3.540  0.6700E+00  0.5414E+01
   3.560  0.8101E+00  0.5430E+01
   3.580  0.9524E+00  0.5449E+01
   3.600  0.1427E+01  0.5478E+01
   3.620  0.1088E+01  0.5500E+01
   3.640  0.6109E+00  0.5512E+01
   3.660  0.9981E+00  0.5532E+01
   3.680  0.8431E+00  0.5549E+01
   3.700  0.7710E+00  0.5564E+01
   3.720  0.9571E+00  0.5583E+01
   3.740  0.7062E+00  0.5597E+01
   3.760  0.1257E+01  0.5623E+01
   3.780  0.1708E+01  0.5657E+01
   3.800  0.8474E+00  0.5674E+01
   3.820  0.5327E+00  0.5684E+01
   3.840  0.9216E+00  0.5703E+01
   3.860  0.7772E+00  0.5718E+01
   3.880  0.2175E+00  0.5723E+01
   3.900  0.6644E+00  0.5736E+01
   3.920  0.1133E+01  0.5759E+01
   3.940  0.5369E+00  0.5769E+01
   3.960  0.2164E+00  0.5774E+01
   3.980  0.6948E+00  0.5788E+01
   4.000  0.6021E+00  0.5800E+01
   4.020  0.2360E+00  0.5804E+01
   4.040  0.4317E+00  0.5813E+01
   4.060  0.8300E+00  0.5830E+01
   4.080  0.5938E+00  0.5841E+01
   4.100  0.4993E+00  0.5851E+01
   4.120  0.5606E+00  0.5863E+01
   4.140  0.9986E+00  0.5883E+01
   4.160  0.8000E+00  0.5899E+01
   4.180  0.9529E-01  0.5900E+01
   4.200  0.6310E-01  0.5902E+01
   4.220  0.5747E+00  0.5913E+01
   4.240  0.9158E+00  0.5932E+01
   4.260  0.4143E+00  0.5940E+01
   4.280  0.2816E+00  0.5945E+01
   4.300  0.5097E+00  0.5956E+01
   4.320  0.8191E+00  0.5972E+01
   4.340  0.5765E+00  0.5984E+01
   4.360  0.3347E+00  0.5990E+01
   4.380  0.4101E+00  0.5998E+01
   4.400  0.6416E+00  0.6011E+01
   4.420  0.6830E+00  0.6025E+01
   4.440  0.3107E+00  0.6031E+01
   4.460  0.5204E+00  0.6042E+01
   4.480  0.6354E+00  0.6054E+01
   4.500  0.4623E+00  0.6064E+01
   4.520  0.5879E+00  0.6075E+01
   4.540  0.2103E+00  0.6080E+01
   4.560  0.1209E+00  0.6082E+01
   4.580  0.3842E+00  0.6090E+01
   4.600  0.6555E+00  0.6103E+01
   4.620  0.1001E+01  0.6123E+01
   4.640  0.6358E+00  0.6135E+01
   4.660  0.5202E+00  0.6146E+01
   4.680  0.5350E+00  0.6157E+01
   4.700  0.2074E+00  0.6161E+01
   4.720  0.4841E+00  0.6170E+01
   4.740  0.4560E+00  0.6180E+01
   4.760  0.3109E+00  0.6186E+01
   4.780  0.1564E+00  0.6189E+01
   4.800  0.9906E-01  0.6191E+01
   4.820  0.6294E+00  0.6203E+01
   4.840  0.1294E+01  0.6229E+01
   4.860  0.8898E+00  0.6247E+01
   4.880  0.3925E+00  0.6255E+01
   4.900  0.1747E+00  0.6258E+01
   4.920  0.1164E+00  0.6261E+01
   4.940  0.6799E+00  0.6274E+01
   4.960  0.6344E+00  0.6287E+01
   4.980  0.2293E+00  0.6292E+01
   5.000  0.9900E+00  0.6311E+01
   5.020  0.2701E+01  0.6365E+01
   5.040  0.2825E+01  0.6422E+01
   5.060  0.2510E+01  0.6472E+01
   5.080  0.2176E+01  0.6516E+01
   5.100  0.1549E+01  0.6547E+01
   5.120  0.1150E+01  0.6570E+01
   5.140  0.1176E+01  0.6593E+01
   5.160  0.1346E+01  0.6620E+01
   5.180  0.1525E+01  0.6651E+01
   5.200  0.9435E+00  0.6669E+01
   5.220  0.9132E+00  0.6688E+01
   5.240  0.8371E+00  0.6704E+01
   5.260  0.7835E+00  0.6720E+01
   5.280  0.1433E+01  0.6749E+01
   5.300  0.1668E+01  0.6782E+01
   5.320  0.1283E+01  0.6808E+01
   5.340  0.1131E+01  0.6830E+01
   5.360  0.5588E+00  0.6842E+01
   5.380  0.7295E+00  0.6856E+01
   5.400  0.1131E+01  0.6879E+01
   5.420  0.1128E+01  0.6901E+01
   5.440  0.5133E+00  0.6912E+01
   5.460  0.9196E+00  0.6930E+01
   5.480  0.1119E+01  0.6952E+01
   5.500  0.1348E+01  0.6979E+01
   5.520  0.9860E+00  0.6999E+01
   5.540  0.1148E+01  0.7022E+01
   5.560  0.9589E+00  0.7041E+01
   5.580  0.6152E+00  0.7054E+01
   5.600  0.5170E+00  0.7064E+01
   5.620  0.7822E+00  0.7080E+01
   5.640  0.1947E+01  0.7118E+01
   5.660  0.8868E+00  0.7136E+01
   5.680  0.8167E+00  0.7153E+01
   5.700  0.8270E+00  0.7169E+01
   5.720  0.6105E+00  0.7181E+01
   5.740  0.1030E+01  0.7202E+01
   5.760  0.1264E+01  0.7227E+01
   5.780  0.1406E+01  0.7255E+01
   5.800  0.8279E+00  0.7272E+01
   5.820  0.6630E+00  0.7285E+01
   5.840  0.1118E+01  0.7307E+01
   5.860  0.1183E+01  0.7331E+01
   5.880  0.1099E+01  0.7353E+01
   5.900  0.8236E+00  0.7370E+01
   5.920  0.9261E+00  0.7388E+01
   5.940  0.1581E+01  0.7420E+01
   5.960  0.1332E+01  0.7446E+01
   5.980  0.1000E+01  0.7466E+01
   6.000  0.9831E+00  0.7486E+01
   6.020  0.1428E+01  0.7515E+01
   6.040  0.1407E+01  0.7543E+01
   6.060  0.1449E+01  0.7572E+01
   6.080  0.1159E+01  0.7595E+01
   6.100  0.1830E+01  0.7632E+01
   6.120  0.1961E+01  0.7671E+01
   6.140  0.1740E+01  0.7706E+01
   6.160  0.2140E+01  0.7748E+01
   6.180  0.2956E+01  0.7807E+01
   6.200  0.4414E+01  0.7896E+01
   6.220  0.4171E+01  0.7979E+01
   6.240  0.1003E+01  0.7999E+01
   6.260  0.4097E-01  0.8000E+01
   6.280  0.2467E-03  0.8000E+01
   6.300  0.2084E-06  0.8000E+01
   6.320  0.2426E-10  0.8000E+01
   6.340  0.3863E-15  0.8000E+01
   6.360  0.8385E-21  0.8000E+01
   6.380  0.2476E-27  0.8000E+01
   6.400  0.9927E-35  0.8000E+01
   6.420  0.5402E-43  0.8000E+01
   6.440  0.3987E-52  0.8000E+01
   6.460  0.3988E-62  0.8000E+01
   6.480  0.5405E-73  0.8000E+01
   6.500  0.7209E-84  0.8000E+01
   6.520  0.3704E-79  0.8000E+01
   6.540  0.7184E-68  0.8000E+01
   6.560  0.1890E-57  0.8000E+01
   6.580  0.6742E-48  0.8000E+01
   6.600  0.3265E-39  0.8000E+01
   6.620  0.2147E-31  0.8000E+01
   6.640  0.1919E-24  0.8000E+01
   6.660  0.2334E-18  0.8000E+01
   6.680  0.3875E-13  0.8000E+01
   6.700  0.8820E-09  0.8000E+01
   6.720  0.2774E-05  0.8000E+01
   6.740  0.1223E-02  0.8000E+01
   6.760  0.7792E-01  0.8002E+01
   6.780  0.7702E+00  0.8017E+01
   6.800  0.1481E+01  0.8047E+01
   6.820  0.1101E+01  0.8069E+01
   6.840  0.7897E+00  0.8084E+01
   6.860  0.6643E+00  0.8098E+01
   6.880  0.5921E+00  0.8110E+01
   6.900  0.5883E+00  0.8121E+01
   6.920  0.1293E+01  0.8147E+01
   6.940  0.1830E+01  0.8184E+01
   6.960  0.1365E+01  0.8211E+01
   6.980  0.1288E+01  0.8237E+01
   7.000  0.7980E+00  0.8253E+01
   7.020  0.1073E+01  0.8274E+01
   7.040  0.8131E+00  0.8291E+01
   7.060  0.7405E+00  0.8305E+01
   7.080  0.7609E+00  0.8321E+01
   7.100  0.8325E+00  0.8337E+01
   7.120  0.6121E+00  0.8349E+01
   7.140  0.5334E+00  0.8360E+01
   7.160  0.9015E+00  0.8378E+01
   7.180  0.5284E+00  0.8389E+01
   7.200  0.4589E+00  0.8398E+01
   7.220  0.7635E+00  0.8413E+01
   7.240  0.5543E+00  0.8424E+01
   7.260  0.4332E+00  0.8433E+01
   7.280  0.7537E+00  0.8448E+01
   7.300  0.4644E+00  0.8457E+01
   7.320  0.2902E+00  0.8463E+01
   7.340  0.7201E+00  0.8477E+01
   7.360  0.7954E+00  0.8493E+01
   7.380  0.2067E+00  0.8498E+01
   7.400  0.2807E+00  0.8503E+01
   7.420  0.1545E+01  0.8534E+01
   7.440  0.1631E+01  0.8567E+01
   7.460  0.6321E+00  0.8579E+01
   7.480  0.5830E+00  0.8591E+01
   7.500  0.1205E+01  0.8615E+01
   7.520  0.1266E+01  0.8640E+01
   7.540  0.6541E+00  0.8653E+01
   7.560  0.4101E+00  0.8662E+01
   7.580  0.9499E+00  0.8681E+01
   7.600  0.1049E+01  0.8702E+01
   7.620  0.5510E+00  0.8713E+01
   7.640  0.6628E+00  0.8726E+01
   7.660  0.6587E+00  0.8739E+01
   7.680  0.1095E+01  0.8761E+01
   7.700  0.6895E+00  0.8775E+01
   7.720  0.2120E+00  0.8779E+01
   7.740  0.1020E+01  0.8799E+01
   7.760  0.2184E+01  0.8843E+01
   7.780  0.2031E+01  0.8884E+01
   7.800  0.1270E+01  0.8909E+01
   7.820  0.9192E+00  0.8927E+01
   7.840  0.9130E+00  0.8946E+01
   7.860  0.1247E+01  0.8971E+01
   7.880  0.1600E+01  0.9003E+01
   7.900  0.8115E+00  0.9019E+01
   7.920  0.6548E+00  0.9032E+01
   7.940  0.1022E+01  0.9052E+01
   7.960  0.9761E+00  0.9072E+01
   7.980  0.9366E+00  0.9091E+01
   8.000  0.7425E+00  0.9106E+01
   8.020  0.1124E+01  0.9128E+01
   8.040  0.9704E+00  0.9147E+01
   8.060  0.5836E+00  0.9159E+01
   8.080  0.9584E+00  0.9178E+01
   8.100  0.8221E+00  0.9195E+01
   8.120  0.7874E+00  0.9210E+01
   8.140  0.7485E+00  0.9225E+01
   8.160  0.8052E+00  0.9242E+01
   8.180  0.1016E+01  0.9262E+01
   8.200  0.9268E+00  0.9280E+01
   8.220  0.7198E+00  0.9295E+01
   8.240  0.6868E+00  0.9309E+01
   8.260  0.5193E+00  0.9319E+01
   8.280  0.6167E+00  0.9331E+01
   8.300  0.1213E+01  0.9356E+01
   8.320  0.1077E+01  0.9377E+01
   8.340  0.7697E+00  0.9392E+01
   8.360  0.4736E+00  0.9402E+01
   8.380  0.4135E+00  0.9410E+01
   8.400  0.9173E+00  0.9429E+01
   8.420  0.9637E+00  0.9448E+01
   8.440  0.9028E+00  0.9466E+01
   8.460  0.7011E+00  0.9480E+01
   8.480  0.7467E+00  0.9495E+01
   8.500  0.4585E+00  0.9504E+01
   8.520  0.8981E+00  0.9522E+01
   8.540  0.1384E+01  0.9550E+01
   8.560  0.6115E+00  0.9562E+01
   8.580  0.3204E+00  0.9568E+01
   8.600  0.3542E+00  0.9575E+01
   8.620  0.1037E+01  0.9596E+01
   8.640  0.1695E+01  0.9630E+01
   8.660  0.8579E+00  0.9647E+01
   8.680  0.5846E+00  0.9659E+01
   8.700  0.3768E+00  0.9666E+01
   8.720  0.9219E+00  0.9685E+01
   8.740  0.1214E+01  0.9709E+01
   8.760  0.2393E+01  0.9757E+01
   8.780  0.4968E+01  0.9856E+01
   8.800  0.4747E+01  0.9951E+01
   8.820  0.3693E+01  0.1003E+02
   8.840  0.3619E+01  0.1010E+02
   8.860  0.1984E+01  0.1014E+02
   8.880  0.1623E+01  0.1017E+02
   8.900  0.2114E+01  0.1021E+02
   8.920  0.1802E+01  0.1025E+02
   8.940  0.1416E+01  0.1028E+02
   8.960  0.1174E+01  0.1030E+02
   8.980  0.1343E+01  0.1033E+02
   9.000  0.2253E+01  0.1037E+02
   9.020  0.1916E+01  0.1041E+02
   9.040  0.1274E+01  0.1044E+02
   9.060  0.1278E+01  0.1046E+02
   9.080  0.1168E+01  0.1048E+02
   9.100  0.8930E+00  0.1050E+02
   9.120  0.1928E+01  0.1054E+02
   9.140  0.2515E+01  0.1059E+02
   9.160  0.1522E+01  0.1062E+02
   9.180  0.1205E+01  0.1065E+02
   9.200  0.1416E+01  0.1067E+02
   9.220  0.1283E+01  0.1070E+02
   9.240  0.1642E+01  0.1073E+02
   9.260  0.3104E+01  0.1079E+02
   9.280  0.2555E+01  0.1085E+02
   9.300  0.6925E+00  0.1086E+02
   9.320  0.4790E+00  0.1087E+02
   9.340  0.9515E+00  0.1089E+02
   9.360  0.1085E+01  0.1091E+02
   9.380  0.9510E+00  0.1093E+02
   9.400  0.1685E+01  0.1096E+02
   9.420  0.1030E+01  0.1098E+02
   9.440  0.3871E+00  0.1099E+02
   9.460  0.9364E+00  0.1101E+02
   9.480  0.9335E+00  0.1103E+02
   9.500  0.5457E+00  0.1104E+02
   9.520  0.1195E+01  0.1106E+02
   9.540  0.1930E+01  0.1110E+02
   9.560  0.3616E+01  0.1117E+02
   9.580  0.4452E+01  0.1126E+02
   9.600  0.3375E+01  0.1133E+02
   9.620  0.2516E+01  0.1138E+02
   9.640  0.2666E+01  0.1143E+02
   9.660  0.3031E+01  0.1149E+02
   9.680  0.2672E+01  0.1155E+02
   9.700  0.2560E+01  0.1160E+02
   9.720  0.3124E+01  0.1166E+02
   9.740  0.4672E+01  0.1176E+02
   9.760  0.3102E+01  0.1182E+02
   9.780  0.1375E+01  0.1184E+02
   9.800  0.1061E+01  0.1187E+02
   9.820  0.4801E+00  0.1188E+02
   9.840  0.4171E+00  0.1188E+02
   9.860  0.5841E+00  0.1190E+02
   9.880  0.3103E+00  0.1190E+02
   9.900  0.9383E+00  0.1192E+02
   9.920  0.1889E+01  0.1196E+02
   9.940  0.9625E+00  0.1198E+02
   9.960  0.5649E+00  0.1199E+02
   9.980  0.7134E+00  0.1200E+02
  10.000  0.4673E+00  0.1201E+02
  10.020  0.5701E+00  0.1202E+02
  10.040  0.9025E+00  0.1204E+02
  10.060  0.3720E+00  0.1205E+02
  10.080  0.2537E+00  0.1205E+02
  10.100  0.1105E+01  0.1208E+02
  10.120  0.1555E+01  0.1211E+02
  10.140  0.1060E+01  0.1213E+02
  10.160  0.8741E+00  0.1215E+02
  10.180  0.5817E+00  0.1216E+02
  10.200  0.2206E+00  0.1216E+02
  10.220  0.5540E+00  0.1217E+02
  10.240  0.2756E+00  0.1218E+02
  10.260  0.3599E+00  0.1219E+02
  10.280  0.1369E+01  0.1221E+02
  10.300  0.1706E+01  0.1225E+02
  10.320  0.1070E+01  0.1227E+02
  10.340  0.1864E+01  0.1231E+02
  10.360  0.3491E+01  0.1238E+02
  10.380  0.2919E+01  0.1243E+02
  10.400  0.2404E+01  0.1248E+02
  10.420  0.1929E+01  0.1252E+02
  10.440  0.2095E+01  0.1256E+02
  10.460  0.2245E+01  0.1261E+02
  10.480  0.2386E+01  0.1266E+02
  10.500  0.2937E+01  0.1271E+02
  10.520  0.2868E+01  0.1277E+02
  10.540  0.2850E+01  0.1283E+02
  10.560  0.1235E+01  0.1285E+02
  10.580  0.5495E+00  0.1286E+02
  10.600  0.6099E+00  0.1288E+02
  10.620  0.7314E+00  0.1289E+02
  10.640  0.7356E+00  0.1291E+02
  10.660  0.3888E+00  0.1291E+02
  10.680  0.2838E+00  0.1292E+02
  10.700  0.7042E+00  0.1293E+02
  10.720  0.7995E+00  0.1295E+02
  10.740  0.6231E+00  0.1296E+02
  10.760  0.2895E+00  0.1297E+02
  10.780  0.2810E+00  0.1297E+02
  10.800  0.8236E-01  0.1298E+02
  10.820  0.1351E+00  0.1298E+02
  10.840  0.2758E+00  0.1298E+02
  10.860  0.8634E-01  0.1299E+02
  10.880  0.2165E+00  0.1299E+02
  10.900  0.8427E+00  0.1301E+02
  10.920  0.8410E+00  0.1302E+02
  10.940  0.5001E+00  0.1303E+02
  10.960  0.7961E-01  0.1303E+02
  10.980  0.1962E-02  0.1303E+02
  11.000  0.1887E-04  0.1303E+02
  11.020  0.2651E-02  0.1303E+02
  11.040  0.8727E-01  0.1304E+02
  11.060  0.4978E+00  0.1305E+02
  11.080  0.6982E+00  0.1306E+02
  11.100  0.7130E+00  0.1307E+02
  11.120  0.8207E+00  0.1309E+02
  11.140  0.3438E+00  0.1310E+02
  11.160  0.2641E+00  0.1310E+02
  11.180  0.7397E-01  0.1310E+02
  11.200  0.3506E+00  0.1311E+02
  11.220  0.1273E+01  0.1314E+02
  11.240  0.1670E+01  0.1317E+02
  11.260  0.1324E+01  0.1320E+02
  11.280  0.8500E+00  0.1321E+02
  11.300  0.7039E+00  0.1323E+02
  11.320  0.1462E+01  0.1326E+02
  11.340  0.1221E+01  0.1328E+02
  11.360  0.5925E+00  0.1329E+02
  11.380  0.7495E+00  0.1331E+02
  11.400  0.8667E+00  0.1333E+02
  11.420  0.9006E+00  0.1334E+02
  11.440  0.8880E+00  0.1336E+02
  11.460  0.8929E+00  0.1338E+02
  11.480  0.6413E+00  0.1339E+02
  11.500  0.5877E+00  0.1340E+02
  11.520  0.7576E+00  0.1342E+02
  11.540  0.9383E+00  0.1344E+02
  11.560  0.9582E+00  0.1346E+02
  11.580  0.1325E+01  0.1348E+02
  11.600  0.1069E+01  0.1351E+02
  11.620  0.6555E+00  0.1352E+02
  11.640  0.5636E+00  0.1353E+02
  11.660  0.1893E+00  0.1353E+02
  11.680  0.4737E+00  0.1354E+02
  11.700  0.9527E+00  0.1356E+02
  11.720  0.5481E+00  0.1357E+02
  11.740  0.7595E+00  0.1359E+02
  11.760  0.1651E+01  0.1362E+02
  11.780  0.9198E+00  0.1364E+02
  11.800  0.3703E+00  0.1365E+02
  11.820  0.8574E+00  0.1366E+02
  11.840  0.1281E+01  0.1369E+02
  11.860  0.1489E+01  0.1372E+02
  11.880  0.1390E+01  0.1375E+02
  11.900  0.1098E+01  0.1377E+02
  11.920  0.8104E+00  0.1379E+02
  11.940  0.9862E+00  0.1381E+02
  11.960  0.1126E+01  0.1383E+02
  11.980  0.1358E+01  0.1385E+02
  12.000  0.1157E+01  0.1388E+02
  12.020  0.7669E+00  0.1389E+02
  12.040  0.7577E+00  0.1391E+02
  12.060  0.5206E+00  0.1392E+02
  12.080  0.2325E+00  0.1392E+02
  12.100  0.8059E+00  0.1394E+02
  12.120  0.8979E+00  0.1396E+02
  12.140  0.7024E+00  0.1397E+02
  12.160  0.8887E+00  0.1399E+02
  12.180  0.9643E+00  0.1401E+02
  12.200  0.1438E+01  0.1404E+02
  12.220  0.6491E+00  0.1405E+02
  12.240  0.3314E+00  0.1406E+02
  12.260  0.5093E+00  0.1407E+02
  12.280  0.1085E+01  0.1409E+02
  12.300  0.1278E+01  0.1411E+02
  12.320  0.6503E+00  0.1413E+02
  12.340  0.1254E+00  0.1413E+02
  12.360  0.4114E+00  0.1414E+02
  12.380  0.8933E+00  0.1416E+02
  12.400  0.1190E+01  0.1418E+02
  12.420  0.1106E+01  0.1420E+02
  12.440  0.7265E+00  0.1422E+02
  12.460  0.1126E+01  0.1424E+02
  12.480  0.5880E+00  0.1425E+02
  12.500  0.4040E+00  0.1426E+02
  12.520  0.5277E+00  0.1427E+02
  12.540  0.5386E+00  0.1428E+02
  12.560  0.4537E+00  0.1429E+02
  12.580  0.4109E+00  0.1430E+02
  12.600  0.6368E+00  0.1431E+02
  12.620  0.8988E+00  0.1433E+02
  12.640  0.1095E+01  0.1435E+02
  12.660  0.8744E+00  0.1437E+02
  12.680  0.3723E+00  0.1438E+02
  12.700  0.2821E+00  0.1438E+02
  12.720  0.3874E+00  0.1439E+02
  12.740  0.5162E+00  0.1440E+02
  12.760  0.8439E+00  0.1442E+02
  12.780  0.1073E+01  0.1444E+02
  12.800  0.5098E+00  0.1445E+02
  12.820  0.4099E+00  0.1446E+02
  12.840  0.5298E+00  0.1447E+02
  12.860  0.4112E+00  0.1447E+02
  12.880  0.5793E+00  0.1449E+02
  12.900  0.5205E+00  0.1450E+02
  12.920  0.1240E+01  0.1452E+02
  12.940  0.1125E+01  0.1454E+02
  12.960  0.2602E+00  0.1455E+02
  12.980  0.3141E+00  0.1456E+02
  13.000  0.4265E+00  0.1456E+02
  13.020  0.5170E+00  0.1457E+02
  13.040  0.3124E+00  0.1458E+02
  13.060  0.4845E+00  0.1459E+02
  13.080  0.8208E+00  0.1461E+02
  13.100  0.1290E+01  0.1463E+02
  13.120  0.9507E+00  0.1465E+02
  13.140  0.5918E+00  0.1466E+02
  13.160  0.1724E+00  0.1467E+02
  13.180  0.1025E+00  0.1467E+02
  13.200  0.5846E+00  0.1468E+02
  13.220  0.1251E+01  0.1471E+02
  13.240  0.1255E+01  0.1473E+02
  13.260  0.8150E+00  0.1475E+02
  13.280  0.4465E+00  0.1476E+02
  13.300  0.3601E+00  0.1476E+02
  13.320  0.6608E+00  0.1478E+02
  13.340  0.1036E+01  0.1480E+02
  13.360  0.6191E+00  0.1481E+02
  13.380  0.3889E+00  0.1482E+02
  13.400  0.7168E+00  0.1483E+02
  13.420  0.9744E+00  0.1485E+02
  13.440  0.3621E+00  0.1486E+02
  13.460  0.3664E+00  0.1487E+02
  13.480  0.4750E+00  0.1487E+02
  13.500  0.4386E+00  0.1488E+02
  13.520  0.3188E+00  0.1489E+02
  13.540  0.7354E+00  0.1490E+02
  13.560  0.1250E+01  0.1493E+02
  13.580  0.1268E+01  0.1496E+02
  13.600  0.7997E+00  0.1497E+02
  13.620  0.2412E+00  0.1498E+02
  13.640  0.2626E+00  0.1498E+02
  13.660  0.3653E+00  0.1499E+02
  13.680  0.8155E+00  0.1500E+02
  13.700  0.8328E+00  0.1502E+02
  13.720  0.3193E+00  0.1503E+02
  13.740  0.5598E+00  0.1504E+02
  13.760  0.4495E+00  0.1505E+02
  13.780  0.8240E+00  0.1506E+02
  13.800  0.9278E+00  0.1508E+02
  13.820  0.4408E+00  0.1509E+02
  13.840  0.1314E+00  0.1509E+02
  13.860  0.5880E-01  0.1510E+02
  13.880  0.3505E+00  0.1510E+02
  13.900  0.6843E+00  0.1512E+02
  13.920  0.4089E+00  0.1512E+02
  13.940  0.5855E+00  0.1514E+02
  13.960  0.1415E+01  0.1516E+02
  13.980  0.1248E+01  0.1519E+02
  14.000  0.1051E+01  0.1521E+02
  14.020  0.1122E+01  0.1523E+02
  14.040  0.1071E+01  0.1525E+02
  14.060  0.1336E+01  0.1528E+02
  14.080  0.1327E+01  0.1531E+02
  14.100  0.1049E+01  0.1533E+02
  14.120  0.9395E+00  0.1535E+02
  14.140  0.2972E+00  0.1535E+02
  14.160  0.1899E+00  0.1536E+02
  14.180  0.2555E+00  0.1536E+02
  14.200  0.9658E-01  0.1536E+02
  14.220  0.5181E+00  0.1537E+02
  14.240  0.1168E+01  0.1540E+02
  14.260  0.1302E+01  0.1542E+02
  14.280  0.7775E+00  0.1544E+02
  14.300  0.1607E+00  0.1544E+02
  14.320  0.7882E-02  0.1544E+02
  14.340  0.3705E-03  0.1544E+02
  14.360  0.2721E-01  0.1544E+02
  14.380  0.3248E+00  0.1545E+02
  14.400  0.5246E+00  0.1546E+02
  14.420  0.1147E+00  0.1546E+02
  14.440  0.3491E-02  0.1546E+02
  14.460  0.1295E-01  0.1546E+02
  14.480  0.2312E+00  0.1547E+02
  14.500  0.5597E+00  0.1548E+02
  14.520  0.2036E+00  0.1548E+02
  14.540  0.2941E+00  0.1549E+02
  14.560  0.5438E+00  0.1550E+02
  14.580  0.1399E+00  0.1550E+02
  14.600  0.4872E-02  0.1550E+02
  14.620  0.2296E-04  0.1550E+02
  14.640  0.2255E-06  0.1550E+02
  14.660  0.1705E-03  0.1550E+02
  14.680  0.1887E-01  0.1550E+02
  14.700  0.3016E+00  0.1551E+02
  14.720  0.8742E+00  0.1553E+02
  14.740  0.6724E+00  0.1554E+02
  14.760  0.1195E+00  0.1554E+02
  14.780  0.3385E-02  0.1554E+02
  14.800  0.1372E-04  0.1554E+02
  14.820  0.2292E-03  0.1554E+02
  14.840  0.2250E-01  0.1554E+02
  14.860  0.2991E+00  0.1555E+02
  14.880  0.5379E+00  0.1556E+02
  14.900  0.1310E+00  0.1556E+02
  14.920  0.5178E-02  0.1556E+02
  14.940  0.5160E-01  0.1556E+02
  14.960  0.4171E+00  0.1557E+02
  14.980  0.4570E+00  0.1558E+02
  15.000  0.1065E+00  0.1558E+02
  15.020  0.3770E+00  0.1559E+02
  15.040  0.4909E+00  0.1560E+02
  15.060  0.8684E-01  0.1560E+02
  15.080  0.2079E-02  0.1560E+02
  15.100  0.6741E-05  0.1560E+02
  15.120  0.8145E-05  0.1560E+02
  15.140  0.2382E-02  0.1560E+02
  15.160  0.9613E-01  0.1560E+02
  15.180  0.5953E+00  0.1562E+02
  15.200  0.8640E+00  0.1563E+02
  15.220  0.3961E+00  0.1564E+02
  15.240  0.3554E-01  0.1564E+02
  15.260  0.4627E-03  0.1564E+02
  15.280  0.1576E-03  0.1564E+02
  15.300  0.1761E-01  0.1564E+02
  15.320  0.2677E+00  0.1565E+02
  15.340  0.5506E+00  0.1566E+02
  15.360  0.1533E+00  0.1566E+02
  15.380  0.5829E-02  0.1566E+02
  15.400  0.8627E-02  0.1566E+02
  15.420  0.1887E+00  0.1567E+02
  15.440  0.5659E+00  0.1568E+02
  15.460  0.3758E+00  0.1568E+02
  15.480  0.5616E+00  0.1570E+02
  15.500  0.2713E+00  0.1570E+02
  15.520  0.1812E-01  0.1570E+02
  15.540  0.1638E-03  0.1570E+02
  15.560  0.3102E-04  0.1570E+02
  15.580  0.5957E-02  0.1570E+02
  15.600  0.1558E+00  0.1570E+02
  15.620  0.5524E+00  0.1572E+02
  15.640  0.3124E+00  0.1572E+02
  15.660  0.4239E+00  0.1573E+02
  15.680  0.4658E+00  0.1574E+02
  15.700  0.7247E-01  0.1574E+02
  15.720  0.3044E-01  0.1574E+02
  15.740  0.3333E+00  0.1575E+02
  15.760  0.5196E+00  0.1576E+02
  15.780  0.1097E+00  0.1576E+02
  15.800  0.3132E-02  0.1576E+02
  15.820  0.2119E-03  0.1576E+02
  15.840  0.2096E-01  0.1576E+02
  15.860  0.3197E+00  0.1577E+02
  15.880  0.8931E+00  0.1579E+02
  15.900  0.6482E+00  0.1580E+02
  15.920  0.1051E+00  0.1580E+02
  15.940  0.5437E-02  0.1580E+02
  15.960  0.1017E+00  0.1580E+02
  15.980  0.5109E+00  0.1581E+02
  16.000  0.3473E+00  0.1582E+02
  16.020  0.3199E-01  0.1582E+02
  16.040  0.7923E-02  0.1582E+02
  16.060  0.1891E+00  0.1582E+02
  16.080  0.8010E+00  0.1584E+02
  16.100  0.7983E+00  0.1586E+02
  16.120  0.1951E+00  0.1586E+02
  16.140  0.1916E+00  0.1586E+02
  16.160  0.5597E+00  0.1588E+02
  16.180  0.2345E+00  0.1588E+02
  16.200  0.1450E+00  0.1588E+02
  16.220  0.5496E+00  0.1589E+02
  16.240  0.5515E+00  0.1591E+02
  16.260  0.1006E+01  0.1593E+02
  16.280  0.8280E+00  0.1594E+02
  16.300  0.8908E+00  0.1596E+02
  16.320  0.1319E+01  0.1599E+02
  16.340  0.6349E+00  0.1600E+02
  16.360  0.5377E-01  0.1600E+02
  16.380  0.6758E-03  0.1600E+02
  16.400  0.1210E-05  0.1600E+02
  16.420  0.3026E-09  0.1600E+02
  16.440  0.1044E-13  0.1600E+02
  16.460  0.4923E-19  0.1600E+02
  16.480  0.3163E-25  0.1600E+02
  16.500  0.2759E-32  0.1600E+02
  16.520  0.3263E-40  0.1600E+02
  16.540  0.5230E-49  0.1600E+02
  16.560  0.1135E-58  0.1600E+02
  16.580  0.3335E-69  0.1600E+02
  16.600  0.1327E-80  0.1600E+02
  16.620  0.6246E-84  0.1600E+02
  16.640  0.6246E-84  0.1600E+02
  16.660  0.6246E-84  0.1600E+02
  16.680  0.6246E-84  0.1600E+02
  16.700  0.6246E-84  0.1600E+02
  16.720  0.6246E-84  0.1600E+02
  16.740  0.6246E-84  0.1600E+02
  16.760  0.6246E-84  0.1600E+02
  16.780  0.6246E-84  0.1600E+02
  16.800  0.6246E-84  0.1600E+02
  16.820  0.6246E-84  0.1600E+02
  16.840  0.6246E-84  0.1600E+02
  16.860  0.6246E-84  0.1600E+02
  16.880  0.6246E-84  0.1600E+02
  16.900  0.6246E-84  0.1600E+02
  16.920  0.6246E-84  0.1600E+02
  16.940  0.6246E-84  0.1600E+02
  16.960  0.6246E-84  0.1600E+02
  16.980  0.6246E-84  0.1600E+02
  17.000  0.6246E-84  0.1600E+02
  17.020  0.6246E-84  0.1600E+02
  17.040  0.6246E-84  0.1600E+02
  17.060  0.6246E-84  0.1600E+02
  17.080  0.6246E-84  0.1600E+02
  17.100  0.6246E-84  0.1600E+02
  17.120  0.6246E-84  0.1600E+02
  17.140  0.6246E-84  0.1600E+02
  17.160  0.6246E-84  0.1600E+02
  17.180  0.6246E-84  0.1600E+02
  17.200  0.6246E-84  0.1600E+02
  17.220  0.6246E-84  0.1600E+02
  17.240  0.6246E-84  0.1600E+02
  17.260  0.6246E-84  0.1600E+02
  17.280  0.6246E-84  0.1600E+02
  17.300  0.6246E-84  0.1600E+02
  17.320  0.6246E-84  0.1600E+02
  17.340  0.6246E-84  0.1600E+02
  17.360  0.6246E-84  0.1600E+02
  17.380  0.6246E-84  0.1600E+02
  17.400  0.6246E-84  0.1600E+02
  17.420  0.6246E-84  0.1600E+02
  17.440  0.6246E-84  0.1600E+02
  17.460  0.6246E-84  0.1600E+02
  17.480  0.6246E-84  0.1600E+02
  17.500  0.6246E-84  0.1600E+02
  17.520  0.6246E-84  0.1600E+02
  17.540  0.6246E-84  0.1600E+02
  17.560  0.6246E-84  0.1600E+02
  17.580  0.6246E-84  0.1600E+02
  17.600  0.6246E-84  0.1600E+02
  17.620  0.6246E-84  0.1600E+02
  17.640  0.6246E-84  0.1600E+02
  17.660  0.6246E-84  0.1600E+02
  17.680  0.6246E-84  0.1600E+02
  17.700  0.6246E-84  0.1600E+02
  17.720  0.6246E-84  0.1600E+02
  17.740  0.6246E-84  0.1600E+02
  17.760  0.6246E-84  0.1600E+02
  17.780  0.6246E-84  0.1600E+02
  17.800  0.6246E-84  0.1600E+02
  17.820  0.6246E-84  0.1600E+02
  17.840  0.6246E-84  0.1600E+02
  17.860  0.6246E-84  0.1600E+02
  17.880  0.6246E-84  0.1600E+02
  17.900  0.6246E-84  0.1600E+02
  17.920  0.6246E-84  0.1600E+02
  17.940  0.6246E-84  0.1600E+02
  17.960  0.6246E-84  0.1600E+02
  17.980  0.6246E-84  0.1600E+02
  18.000  0.6246E-84  0.1600E+02
  18.020  0.6246E-84  0.1600E+02
  18.040  0.6246E-84  0.1600E+02
  18.060  0.6246E-84  0.1600E+02
  18.080  0.6246E-84  0.1600E+02
  18.100  0.6246E-84  0.1600E+02
  18.120  0.6246E-84  0.1600E+02
  18.140  0.6246E-84  0.1600E+02
  18.160  0.6246E-84  0.1600E+02
  18.180  0.6246E-84  0.1600E+02
  18.200  0.6246E-84  0.1600E+02
  18.220  0.6246E-84  0.1600E+02
  18.240  0.6246E-84  0.1600E+02
  18.260  0.6246E-84  0.1600E+02
  18.280  0.6246E-84  0.1600E+02
  18.300  0.6246E-84  0.1600E+02
  18.320  0.6246E-84  0.1600E+02
  18.340  0.6246E-84  0.1600E+02
  18.360  0.6246E-84  0.1600E+02
  18.380  0.6246E-84  0.1600E+02
  18.400  0.6246E-84  0.1600E+02
  18.420  0.6246E-84  0.1600E+02
  18.440  0.6246E-84  0.1600E+02
  18.460  0.6246E-84  0.1600E+02
  18.480  0.6246E-84  0.1600E+02
  18.500  0.6246E-84  0.1600E+02
  18.520  0.6246E-84  0.1600E+02
  18.540  0.6246E-84  0.1600E+02
  18.560  0.6246E-84  0.1600E+02
  18.580  0.6246E-84  0.1600E+02
  18.600  0.6246E-84  0.1600E+02
  18.620  0.6246E-84  0.1600E+02
  18.640  0.6246E-84  0.1600E+02
  18.660  0.6246E-84  0.1600E+02
  18.680  0.6246E-84  0.1600E+02
  18.700  0.6246E-84  0.1600E+02
  18.720  0.6246E-84  0.1600E+02
  18.740  0.6246E-84  0.1600E+02
  18.760  0.6246E-84  0.1600E+02
  18.780  0.6246E-84  0.1600E+02
  18.800  0.6246E-84  0.1600E+02
  18.820  0.6246E-84  0.1600E+02
  18.840  0.6246E-84  0.1600E+02
  18.860  0.6246E-84  0.1600E+02
  18.880  0.6246E-84  0.1600E+02
  18.900  0.6246E-84  0.1600E+02
  18.920  0.6246E-84  0.1600E+02
  18.940  0.6246E-84  0.1600E+02
  18.960  0.6246E-84  0.1600E+02
  18.980  0.6246E-84  0.1600E+02
  19.000  0.6246E-84  0.1600E+02
  19.020  0.6246E-84  0.1600E+02
  19.040  0.6246E-84  0.1600E+02
  19.060  0.6246E-84  0.1600E+02
  19.080  0.6246E-84  0.1600E+02
  19.100  0.6246E-84  0.1600E+02
  19.120  0.6246E-84  0.1600E+02
  19.140  0.6246E-84  0.1600E+02
  19.160  0.6246E-84  0.1600E+02
  19.180  0.6246E-84  0.1600E+02
  19.200  0.6246E-84  0.1600E+02
  19.220  0.6246E-84  0.1600E+02
  19.240  0.6246E-84  0.1600E+02
  19.260  0.6246E-84  0.1600E+02
  19.280  0.6246E-84  0.1600E+02
  19.300  0.6246E-84  0.1600E+02
  19.320  0.6246E-84  0.1600E+02
  19.340  0.6246E-84  0.1600E+02
  19.360  0.6246E-84  0.1600E+02
  19.380  0.6246E-84  0.1600E+02
  19.400  0.6246E-84  0.1600E+02
  19.420  0.6246E-84  0.1600E+02
  19.440  0.6246E-84  0.1600E+02
  19.460  0.6246E-84  0.1600E+02
  19.480  0.6246E-84  0.1600E+02
  19.500  0.6246E-84  0.1600E+02
  19.520  0.6246E-84  0.1600E+02
  19.540  0.6246E-84  0.1600E+02
  19.560  0.6246E-84  0.1600E+02
  19.580  0.6246E-84  0.1600E+02
  19.600  0.6246E-84  0.1600E+02
  19.620  0.6246E-84  0.1600E+02
  19.640  0.6246E-84  0.1600E+02
  19.660  0.6246E-84  0.1600E+02
  19.680  0.6246E-84  0.1600E+02
  19.700  0.6246E-84  0.1600E+02
  19.720  0.6246E-84  0.1600E+02
  19.740  0.6246E-84  0.1600E+02
  19.760  0.6246E-84  0.1600E+02
  19.780  0.6246E-84  0.1600E+02
  19.800  0.6246E-84  0.1600E+02
  19.820  0.6246E-84  0.1600E+02
  19.840  0.6246E-84  0.1600E+02
  19.860  0.6246E-84  0.1600E+02
  19.880  0.6246E-84  0.1600E+02
  19.900  0.6246E-84  0.1600E+02
  19.920  0.6246E-84  0.1600E+02
  19.940  0.6246E-84  0.1600E+02
  19.960  0.6246E-84  0.1600E+02
  19.980  0.6246E-84  0.1600E+02
  20.000  0.6246E-84  0.1600E+02
